#  GeoPath WELLPLAN for Windows / Compass Survey Export
#  ====================================================
#
#
# $Wellbore_name: PR14
#
# $Well_name: PR14
# $Status_of_Well: EXISTING
#
# $Well_northing:       7621750.00 [m]
# $Well_easting:         187250.00 [m]
# $Derrick_elevation:         0.00 [m]
#
#===============================
#  AHD   Inclination   Azimuth
# $Units: [m]    [deg]    [deg]
#===============================
     0.00     0.00    50.00
   750.00     0.00    50.00
   780.00     3.00    50.00
   810.00     6.00    50.00
   840.00     9.00    50.00
   870.00    12.00    50.00
   900.00    15.00    50.00
   930.00    18.00    50.00
   960.00    21.00    50.00
   990.00    24.00    50.00
  1020.00    27.00    50.00
  1050.00    30.00    50.00
  1080.00    33.00    50.00
  1110.00    36.00    50.00
  1140.00    39.00    50.00
  1170.00    42.00    50.00
  1580.00    42.00    50.00
  1590.00    40.55    50.56
  1620.00    36.20    52.45
  1650.00    31.89    54.78
  1680.00    27.64    57.75
  1710.00    23.47    61.69
  1740.00    19.44    67.19
  1770.00    15.66    75.31
  1800.00    12.35    88.02
  1830.00     9.99   108.03
  1860.00     9.35   134.79
  1890.00    10.73   159.60
  1920.00    13.53   176.55
  1950.00    17.06   187.21
  1980.00    20.96   194.16
  2010.00    25.05   198.97
  2040.00    29.25   202.49
  2070.00    33.53   205.18
  2100.00    37.85   207.33
  2130.00    42.21   209.09
  2160.00    46.59   210.58
  2190.00    50.98   211.87
  2220.00    55.39   213.01
  2250.00    59.80   214.03
  2280.00    64.23   214.97
  2310.00    68.66   215.83
  2340.00    73.09   216.65
  2370.00    77.53   217.43
  2400.00    81.96   218.18
  2430.00    86.40   218.92
  2444.00    88.48   219.26
  2460.00    90.85   219.65
  2474.55    93.00   220.00
  3484.55    93.00   220.00
  3510.00    92.63   216.11
  3540.00    92.19   211.53
  3570.00    91.73   206.95
  3600.00    91.26   202.37
  3603.63    91.20   201.82
  3629.73    91.20   201.82
  3630.00    91.20   201.78
  3660.00    91.06   197.18
  3690.00    90.92   192.58
  3720.00    90.77   187.98
  3750.00    90.61   183.38
  3780.00    90.46   178.78
  3810.00    90.29   174.19
  3840.00    90.13   169.59
  3870.00    89.97   164.99
  3900.00    89.80   160.40
  3930.00    89.64   155.80
  3960.00    89.48   151.20
  3990.00    89.32   146.60
  4020.00    89.17   142.01
  4050.00    89.02   137.41
  4080.00    88.88   132.81
  4110.00    88.75   128.21
  4140.00    88.62   123.61
  4150.51    88.58   122.00
  4155.51    88.58   122.00
  4170.00    88.58   121.52
  4200.00    88.58   120.52
  4230.00    88.58   119.52
  4260.00    88.58   118.52
  4290.00    88.59   117.52
  4320.00    88.59   116.52
  4350.00    88.59   115.51
  4380.00    88.60   114.51
  4410.00    88.60   113.51
  4440.00    88.60   112.51
  4470.00    88.61   111.51
  4500.00    88.61   110.51
  4523.28    88.62   109.74
  4936.92    88.62   109.74
